Talasna duzina_Tirkizna [nm]	 Intenzitet svetlosti_Tirkizna [cd]
177.812	113.2600021
178.410	105.7799988
179.008	115.0599976
179.607	117.4000015
180.205	119
180.803	94.26000214
181.401	111.4000015
182.000	114.4000015
182.598	110.6999969
183.196	111.4000015
183.794	109.0400009
184.392	113.1200027
184.990	110.2399979
185.588	103.5400009
186.186	116.7799988
186.784	114.4000015
187.382	122.8399963
187.980	106.6399994
188.578	110.6600037
189.176	108.0599976
189.774	101.6999969
190.371	95.54000092
190.969	103.2799988
191.567	109.7200012
192.165	107.7600021
192.763	102.3199997
193.360	106.9800034
193.958	107.8199997
194.556	100.5599976
195.153	103.1399994
195.751	102.3199997
196.349	107.7399979
196.946	111.4400024
197.544	108.7200012
198.141	101.7600021
198.739	100.5599976
199.336	105.1800003
199.934	104.7399979
200.531	107.7399979
201.128	96.23999786
201.726	101.0599976
202.323	110.5199966
202.920	107.4599991
203.518	102.2200012
204.115	94.37999725
204.712	89.48000336
205.310	92.37999725
205.907	99.81999969
206.504	95.45999908
207.101	92
207.698	96.12000275
208.295	87.94000244
208.892	94.01999664
209.489	83.83999634
210.087	92.62000275
210.684	87.66000366
211.280	89.18000031
211.877	71.62000275
212.474	96.45999908
213.071	84.63999939
213.668	95.77999878
214.265	77.12000275
214.862	86.91999817
215.459	84.59999847
216.055	80.73999786
216.652	90.05999756
217.249	77.90000153
217.846	80.55999756
218.442	82.44000244
219.039	83.05999756
219.636	82.73999786
220.232	89.16000366
220.829	74.98000336
221.425	82.77999878
222.022	100.0999985
222.618	83.98000336
223.215	93.55999756
223.811	77.98000336
224.408	82.66000366
225.004	86.22000122
225.601	83.19999695
226.197	88.59999847
226.793	80.44000244
227.390	78.55999756
227.986	74.76000214
228.582	88.72000122
229.178	88.37999725
229.774	93.12000275
230.371	87.33999634
230.967	78.68000031
231.563	84.09999847
232.159	79.37999725
232.755	74.86000061
233.351	79.26000214
233.947	86.40000153
234.543	78.22000122
235.139	77.41999817
235.735	67.05999756
236.331	83.45999908
236.927	78.81999969
237.523	82.08000183
238.119	85.51999664
238.714	75.58000183
239.310	84.59999847
239.906	76.01999664
240.502	82.86000061
241.097	73.40000153
241.693	89.5
242.289	83.05999756
242.884	80.26000214
243.480	88.5
244.076	81.83999634
244.671	82.73999786
245.267	83.22000122
245.862	86.73999786
246.458	77.01999664
247.053	79.98000336
247.648	96.81999969
248.244	74.51999664
248.839	82.72000122
249.435	75.36000061
250.030	71.69999695
250.625	75.5
251.220	65.19999695
251.816	81.19999695
252.411	75.66000366
253.006	80.69999695
253.601	82.09999847
254.196	74.91999817
254.791	83.66000366
255.387	91.40000153
255.982	69.44000244
256.577	83.72000122
257.172	84.31999969
257.767	89.51999664
258.362	79.05999756
258.956	85.33999634
259.551	92.45999908
260.146	69.48000336
260.741	84.18000031
261.336	87.13999939
261.931	80.91999817
262.525	86.81999969
263.120	91.12000275
263.715	91.77999878
264.310	87.37999725
264.904	86.94000244
265.499	87.81999969
266.093	78.41999817
266.688	91.48000336
267.282	82.86000061
267.877	79.13999939
268.471	92.22000122
269.066	79.66000366
269.660	81.62000275
270.255	77.94000244
270.849	89.95999908
271.443	72.51999664
272.038	89.18000031
272.632	88.80000305
273.226	79.73999786
273.821	77.37999725
274.415	89.59999847
275.009	89.09999847
275.603	76.48000336
276.197	81.80000305
276.791	88.41999817
277.385	81.30000305
277.979	77.37999725
278.574	69.30000305
279.168	67.55999756
279.761	65.04000092
280.355	63
280.949	56.02000046
281.543	61.29999924
282.137	51.93999863
282.731	69.80000305
283.325	74.98000336
283.918	82.01999664
284.512	113.6800003
285.106	114.1600037
285.700	112.8199997
286.293	122.7399979
286.887	126.0599976
287.480	108.4400024
288.074	91.66000366
288.668	103.4599991
289.261	88.45999908
289.855	94.68000031
290.448	90.27999878
291.042	98.86000061
291.635	97.30000305
292.228	93.09999847
292.822	94.44000244
293.415	93.01999664
294.008	86.12000275
294.602	84.94000244
295.195	95.36000061
295.788	98.30000305
296.381	75.09999847
296.974	94
297.567	95.94000244
298.160	103.2200012
298.754	85.66000366
299.347	97.58000183
299.940	92.12000275
300.533	99.33999634
301.126	94.30000305
301.718	90.31999969
302.311	100.6399994
302.904	96.09999847
303.497	92.95999908
304.090	106.8799973
304.683	89.08000183
305.275	93.94000244
305.868	93.51999664
306.461	90.87999725
307.053	83.48000336
307.646	97.81999969
308.239	97.95999908
308.831	96.81999969
309.424	101.1800003
310.016	90.08000183
310.609	99.45999908
311.201	100.0400009
311.794	106.5199966
312.386	100.9199982
312.979	103.1999969
313.571	100.4400024
314.163	93.45999908
314.756	109.4000015
315.348	107.8799973
315.940	99.16000366
316.532	101.8600006
317.124	101.3600006
317.717	106.5599976
318.309	106.1399994
318.901	107.9000015
319.493	107.2799988
320.085	100.4000015
320.677	101.3799973
321.269	112.6999969
321.861	109.0999985
322.453	111.9800034
323.045	100.1999969
323.636	103.0199966
324.228	107.9400024
324.820	119.9400024
325.412	103.5400009
326.003	110.9400024
326.595	107.5599976
327.187	98.04000092
327.779	111.2399979
328.370	131.8600006
328.962	100.8199997
329.553	109.8799973
330.145	108.3199997
330.736	113.0599976
331.328	115.5199966
331.919	105.6399994
332.511	118.5199966
333.102	105.5599976
333.693	104.8399963
334.285	104.1200027
334.876	101.2200012
335.467	100.9800034
336.058	111.7399979
336.650	111.1399994
337.241	116.0800018
337.832	102.4800034
338.423	116.8399963
339.014	107.0999985
339.605	102.8600006
340.196	114.4400024
340.787	109.5800018
341.378	121.5599976
341.969	118.6200027
342.560	107.7799988
343.151	109.7399979
343.742	113.3799973
344.332	111.9199982
344.923	116.9800034
345.514	120.2200012
346.105	119.3000031
346.695	114.0800018
347.286	118.6600037
347.877	117.1800003
348.467	109.4000015
349.058	107.9400024
349.648	109.6200027
350.239	110.5
350.829	120.4800034
351.420	113.8199997
352.010	109.7200012
352.601	114.8600006
353.191	119.4599991
353.781	125.1999969
354.371	113.6399994
354.962	108.8199997
355.552	102.5
356.142	115.0199966
356.732	105.7799988
357.322	108.6200027
357.913	114.0999985
358.503	114.1600037
359.093	108.9199982
359.683	120.3000031
360.273	116.6600037
360.863	124.2399979
361.453	116.4199982
362.042	106.1200027
362.632	109.0999985
363.222	100.1800003
363.812	106
364.402	101.1999969
364.991	110.5199966
365.581	102.8600006
366.171	108.6999969
366.760	110.9599991
367.350	106
367.940	111.5199966
368.529	111.4000015
369.119	114.1399994
369.708	107.1399994
370.298	104.2399979
370.887	96.90000153
371.476	108.7799988
372.066	109.3600006
372.655	100.8000031
373.244	102.5599976
373.834	112.2399979
374.423	108.9400024
375.012	110.6200027
375.601	102.1200027
376.190	102.8399963
376.779	105.6600037
377.368	103.7799988
377.957	112.7600021
378.546	88.5
379.135	104.1999969
379.724	108.8799973
380.313	108
380.902	107.8199997
381.491	117.7799988
382.080	105.0599976
382.669	105.1200027
383.257	106.5999985
383.846	110.7399979
384.435	99.87999725
385.023	105.3000031
385.612	119.6200027
386.201	103.4800034
386.789	113.6800003
387.378	106.3199997
387.966	111.2200012
388.555	105.6999969
389.143	101.0999985
389.732	111.3000031
390.320	114.9400024
390.908	101.8600006
391.497	96.91999817
392.085	104.7200012
392.673	100.5999985
393.261	107.0800018
393.849	111.7399979
394.438	110.4800034
395.026	111.8199997
395.614	106.2799988
396.202	100.6200027
396.790	109.6999969
397.378	105.1600037
397.966	98.04000092
398.554	106.6399994
399.142	108.0999985
399.729	108.9800034
400.317	102.9199982
400.905	108.4599991
401.493	113.7600021
402.080	115.5
402.668	99.77999878
403.256	109.0400009
403.843	98.98000336
404.431	109.7399979
405.019	96.83999634
405.606	102.8600006
406.194	105.2200012
406.781	113.6999969
407.368	99.69999695
407.956	102.0599976
408.543	102.1999969
409.131	112.9000015
409.718	106.0999985
410.305	110.1999969
410.892	100.4400024
411.479	116.4199982
412.067	115.0800018
412.654	121.5400009
413.241	103.0599976
413.828	112.4000015
414.415	109.3600006
415.002	114.1800003
415.589	122.6200027
416.176	120.9199982
416.763	113.9400024
417.350	115.2399979
417.936	119.2600021
418.523	120.6399994
419.110	120.7799988
419.697	136.1399994
420.283	121.5
420.870	130.7599945
421.457	128.8399963
422.043	129.2400055
422.630	150.3399963
423.216	133.6799927
423.803	141
424.389	138.5200043
424.976	151.8999939
425.562	155.1799927
426.148	167.2200012
426.735	165.3200073
427.321	172.1999969
427.907	177.1999969
428.494	188.3200073
429.080	192.3600006
429.666	201.4199982
430.252	226.7400055
430.838	240.7599945
431.424	247.0200043
432.010	248.0399933
432.596	286.6799927
433.182	309.2399902
433.768	311.5
434.354	355.5599976
434.940	379.5799866
435.526	407.9599915
436.111	427.480011
436.697	485.8999939
437.283	517.8200073
437.869	536.3599854
438.454	613.9400024
439.040	667
439.625	720.539978
440.211	764.3200073
440.796	838.2999878
441.382	928.0999756
441.967	975.4400024
442.553	1086.800049
443.138	1192.939941
443.723	1292.579956
444.309	1424.160034
444.894	1539.599976
445.479	1698.560059
446.064	1847.920044
446.650	2064.100098
447.235	2184.860107
447.820	2387.899902
448.405	2617
448.990	2813
449.575	3107.620117
450.160	3410.97998
450.745	3749.179932
451.330	4069.399902
451.915	4520.680176
452.499	4883.459961
453.084	5414.200195
453.669	5878.859863
454.254	6452.700195
454.838	7074.359863
455.423	7865.319824
456.008	8561.55957
456.592	9467.679688
457.177	10374.51953
457.761	11179.75977
458.346	12329.13965
458.930	13337.05957
459.514	14508.94043
460.099	15563.87988
460.683	16899.90039
461.267	18160.59961
461.852	19456.74023
462.436	20517.17969
463.020	21488.09961
463.604	22602.75977
464.188	23612.01953
464.772	24259.64063
465.356	24846.19922
465.940	25390.66016
466.524	25711.2207
467.108	25767.74023
467.692	25856.35938
468.276	25582.16016
468.860	25130.30078
469.444	24723.30078
470.028	24133.11914
470.611	23197.98047
471.195	22435.7793
471.779	21518.88086
472.362	20777.7793
472.946	19580.43945
473.529	18597.08008
474.113	17702
474.696	16684.25977
475.280	15790.58008
475.863	14947.13965
476.447	14129.7998
477.030	13412.32031
477.613	12763.71973
478.197	12167.08008
478.780	11642.41992
479.363	11134.5
479.946	10649.12012
480.529	10170.90039
481.112	9805.080078
481.695	9424.759766
482.278	8966.719727
482.861	8677.200195
483.444	8309.379883
484.027	8060.640137
484.610	7720.779785
485.193	7352.839844
485.776	7097.600098
486.358	6816.839844
486.941	6555.319824
487.524	6286.779785
488.106	6071.560059
488.689	5903.100098
489.272	5657.200195
489.854	5475.859863
490.437	5349.200195
491.019	5200.879883
491.602	5141
492.184	5092.459961
492.766	5045.859863
493.349	5054.439941
493.931	5061.560059
494.513	5081.439941
495.095	5195.240234
495.678	5299.279785
496.260	5473.120117
496.842	5601.279785
497.424	5768.120117
498.006	6036.060059
498.588	6309.060059
499.170	6566.939941
499.752	6937.100098
500.334	7280.259766
500.916	7710.939941
501.497	8092.899902
502.079	8631.400391
502.661	9167.459961
503.243	9760.280273
503.824	10467.71973
504.406	11214.95996
504.987	11948.17969
505.569	12807.08008
506.151	13849.71973
506.732	14815.04004
507.313	15869.62012
507.895	17048.06055
508.476	18266.56055
509.058	19699.61914
509.639	21134.96094
510.220	22725.69922
510.801	24337.46094
511.382	26020.03906
511.964	27866.98047
512.545	29716.14063
513.126	31728.48047
513.707	33653.10156
514.288	35864.55859
514.869	37912
515.450	40087.23828
516.031	42191.67969
516.611	44255.64063
517.192	46320.16016
517.773	48327.85938
518.354	50199.42188
518.934	51968.71875
519.515	53839.44141
520.096	55468.33984
520.676	56858.83984
521.257	58361.83984
521.837	59459.57813
522.418	60723.21875
522.998	61428.16016
523.579	62271.96094
524.159	62931.5
524.739	63278.05859
525.320	63543.51953
525.900	63737.32031
526.480	63597.42188
527.060	63502.35938
527.640	63148.42188
528.220	62853.62109
528.800	62220.42188
529.380	61639.32031
529.960	60854.10156
530.540	59870.26172
531.120	58805.44141
531.700	57794.35938
532.280	56599.51953
532.860	55448.44141
533.440	54252.30078
534.019	52808.60156
534.599	51479.14063
535.179	50208.17969
535.758	48794.26172
536.338	47527.94141
536.917	46014.57813
537.497	44759.96094
538.076	43460.48047
538.656	42187.78125
539.235	40883.60156
539.814	39659.92188
540.393	38526.03906
540.973	37340.64063
541.552	36138.53906
542.131	35037.89844
542.710	33889.89844
543.289	32849.03906
543.868	31803.17969
544.447	30832.90039
545.026	29938.40039
545.605	28921.96094
546.184	27887.40039
546.763	27051.40039
547.342	26082.48047
547.921	25193.16016
548.499	24372.32031
549.078	23416.19922
549.657	22625.74023
550.235	21820.41992
550.814	21002.83984
551.393	20115.08008
551.971	19323.7793
552.550	18586.83984
553.128	17833.59961
553.706	17134.80078
554.285	16459.32031
554.863	15784.45996
555.441	15099.44043
556.020	14458.82031
556.598	13812.09961
557.176	13242.83984
557.754	12698.09961
558.332	12138.7002
558.910	11632.08008
559.488	11194.95996
560.066	10677.86035
560.644	10279.67969
561.222	9804.259766
561.800	9410.639648
562.378	9007.639648
562.955	8671.419922
563.533	8291.259766
564.111	7980.220215
564.688	7627.779785
565.266	7349.200195
565.844	7007.339844
566.421	6826.5
566.999	6480.859863
567.576	6247.740234
568.154	5983.939941
568.731	5759.100098
569.308	5539.419922
569.886	5329.160156
570.463	5062.060059
571.040	4873.120117
571.617	4690.700195
572.194	4503.97998
572.771	4318.540039
573.349	4169.319824
573.926	3976.439941
574.503	3813.860107
575.079	3671.540039
575.656	3510.879883
576.233	3378.23999
576.810	3268.060059
577.387	3103.060059
577.964	2973.300049
578.540	2875.100098
579.117	2746.800049
579.693	2626.679932
580.270	2546.399902
580.847	2428.780029
581.423	2322.719971
582.000	2236.780029
582.576	2156.899902
583.152	2028.420044
583.729	1968.619995
584.305	1863.079956
584.881	1796.920044
585.457	1759.160034
586.034	1673.73999
586.610	1596.400024
587.186	1549.839966
587.762	1509.23999
588.338	1450.560059
588.914	1396.119995
589.490	1352
590.066	1287.47998
590.641	1244.5
591.217	1196.579956
591.793	1141.060059
592.369	1111.959961
592.945	1055.339966
593.520	1034.52002
594.096	978.1599731
594.671	965.1599731
595.247	939
595.822	878.2000122
596.398	878.4000244
596.973	852.4799805
597.549	821.5800171
598.124	777.8400269
598.699	760.7800293
599.274	729.2199707
599.850	697.7999878
600.425	697.039978
601.000	674.7199707
601.575	637.4199829
602.150	614.7600098
602.725	595.0999756
603.300	589.7000122
603.875	564.3599854
604.450	544.6599731
605.024	538.6799927
605.599	501.5599976
606.174	498.8399963
606.749	482.6799927
607.323	459.5599976
607.898	461.2000122
608.473	445.019989
609.047	431.6400146
609.622	422.7799988
610.196	416.0599976
610.771	390.2200012
611.345	384.4599915
611.919	378.5400085
612.493	377.7200012
613.068	354
613.642	356.7799988
614.216	332.1600037
614.790	331.7200012
615.364	299.1600037
615.938	314.9599915
616.512	292.2600098
617.086	293
617.660	277.6400146
618.234	278.1600037
618.808	260.3200073
619.382	248.8399963
619.955	258.4599915
620.529	236.5599976
621.103	237.1600037
621.676	245.2799988
622.250	223.6399994
622.824	213.1600037
623.397	238.7599945
623.971	223.2400055
624.544	222.4199982
625.117	222.3000031
625.691	222.5599976
626.264	218.4799957
626.837	221.5800018
627.410	202.7599945
627.984	197.4400024
628.557	186.6799927
629.130	195.8800049
629.703	183.8399963
630.276	188.9799957
630.849	183.8200073
631.422	181.7799988
631.994	175.8399963
632.567	168.7599945
633.140	159.0800018
633.713	164.1399994
634.285	162.1000061
634.858	153.4199982
635.431	149
636.003	133.3399963
636.576	139.2400055
637.148	156.1999969
637.721	140.6600037
638.293	128.7799988
638.865	142.0599976
639.438	128.4199982
640.010	129.5599976
640.582	124.7399979
641.154	129.6999969
641.727	115.5
642.299	123
642.871	124
643.443	108.4599991
644.015	116.2399979
644.587	116.8600006
645.159	111.8000031
645.730	99.66000366
646.302	96.12000275
646.874	98.41999817
647.446	92
648.017	101.9800034
648.589	90.09999847
649.161	100.1800003
649.732	90.09999847
650.304	99.23999786
650.875	83.59999847
651.446	89.77999878
652.018	83.41999817
652.589	83.73999786
653.160	82.90000153
653.732	90.44000244
654.303	77.59999847
654.874	73.26000214
655.445	74.95999908
656.016	75.31999969
656.587	73.09999847
657.158	73.66000366
657.729	72.23999786
658.300	70.98000336
658.871	68.19999695
659.442	55.41999817
660.012	59.11999893
660.583	51.45999908
661.154	56.74000168
661.724	51.13999939
662.295	52.25999832
662.866	48.93999863
663.436	53.59999847
664.007	57.24000168
664.577	46
665.147	52.58000183
665.718	47.70000076
666.288	40.97999954
666.858	49.88000107
667.428	46.40000153
667.999	44.5
668.569	46.72000122
669.139	44.90000153
669.709	44.97999954
670.279	57.18000031
670.849	42.47999954
671.418	45.20000076
671.988	46.38000107
672.558	44.43999863
673.128	45.13999939
673.698	41.70000076
674.267	47.06000137
674.837	33.5
675.406	29.04000092
675.976	53.79999924
676.545	48.65999985
677.115	46.88000107
677.684	39.34000015
678.254	47.95999908
678.823	44.18000031
679.392	44
679.961	56.09999847
680.531	46.54000092
681.100	55.52000046
681.669	54.31999969
682.238	63.56000137
682.807	60.24000168
683.376	68.5
683.945	74.36000061
684.514	80.16000366
685.082	69.18000031
685.651	68.01999664
686.220	68.22000122
686.789	64.30000305
687.357	68.18000031
687.926	77.13999939
688.494	74.04000092
689.063	60.31999969
689.631	69.66000366
690.200	69.09999847
690.768	63.20000076
691.337	54.54000092
691.905	53.72000122
692.473	55.18000031
693.041	51.41999817
693.609	60.91999817
694.178	49.27999878
694.746	48.74000168
695.314	46.61999893
695.882	49.65999985
696.450	59.22000122
697.017	56.31999969
697.585	39.45999908
698.153	37.38000107
698.721	44.04000092
699.288	53.56000137
699.856	48.22000122
700.424	56.43999863
700.991	43.68000031
701.559	54.02000046
702.126	45.06000137
702.694	37.58000183
703.261	46.77999878
703.828	42.20000076
704.396	43.88000107
704.963	51.5
705.530	47.77999878
706.097	37.15999985
706.664	37.79999924
707.232	42.56000137
707.799	56.52000046
708.365	50.5
708.932	43.18000031
709.499	43.45999908
710.066	52.77999878
710.633	49.47999954
711.200	45.22000122
711.766	49.41999817
712.333	39.41999817
712.900	52.11999893
713.466	40.02000046
714.033	38.20000076
714.599	41.11999893
715.166	33.54000092
715.732	45.77999878
716.298	35.29999924
716.865	39.91999817
717.431	32.24000168
717.997	36.24000168
718.563	34.52000046
719.129	45.43999863
719.695	34.5
720.261	34.02000046
720.827	49.38000107
721.393	50.68000031
721.959	42.13999939
722.525	43.54000092
723.091	42.45999908
723.656	48.61999893
724.222	42.27999878
724.788	44.63999939
725.353	47.41999817
725.919	47.38000107
726.484	39.86000061
727.050	51.93999863
727.615	43.20000076
728.181	44
728.746	43.65999985
729.311	41.11999893
729.876	29.89999962
730.442	40.31999969
731.007	46.24000168
731.572	24.62000084
732.137	33.61999893
732.702	39.11999893
733.267	44.61999893
733.832	40.27999878
734.397	36.84000015
734.961	36.06000137
735.526	30.57999992
736.091	31.02000046
736.655	29.81999969
737.220	34.79999924
737.785	39.91999817
738.349	31.31999969
738.914	40.90000153
739.478	29.45999908
740.042	30.62000084
740.607	41.24000168
741.171	27.71999931
741.735	33.22000122
742.299	33.02000046
742.864	27.76000023
743.428	30.52000046
743.992	28.5
744.556	43.65999985
745.120	39.5
745.684	36
746.248	40.59999847
746.811	25.15999985
747.375	34.58000183
747.939	22.02000046
748.503	18.87999916
749.066	32.88000107
749.630	17.44000053
750.193	23.54000092
750.757	30.68000031
751.320	40.25999832
751.884	36.72000122
752.447	34.09999847
753.010	27.87999916
753.573	31.78000069
754.137	23.62000084
754.700	24.10000038
755.263	30.86000061
755.826	33.70000076
756.389	23.70000076
756.952	34.70000076
757.515	34.04000092
758.078	24.42000008
758.641	40.52000046
759.203	33.54000092
759.766	17.79999924
760.329	29.89999962
760.891	26.29999924
761.454	32.18000031
762.016	13.39999962
762.579	28.26000023
763.141	26.97999954
763.704	31.05999947
764.266	25.68000031
764.828	11.5
765.391	29.79999924
765.953	19.42000008
766.515	23.78000069
767.077	33.77999878
767.639	13.65999985
768.201	41.08000183
